# L[nm] kappa[W/m/K]
0.00000000 0.00000000
0.10000000 0.00000684
0.20000000 0.00004634
0.30000000 0.00013932
0.40000000 0.00038233
0.50000000 0.00094575
0.60000000 0.00151313
0.70000000 0.00265268
0.80000000 0.00471987
0.90000000 0.00587354
1.00000000 0.00722933
1.10000000 0.00858997
1.20000000 0.01089020
1.30000000 0.01345390
1.40000000 0.01543760
1.50000000 0.01948340
1.60000000 0.02349880
1.70000000 0.02824650
1.80000000 0.03263760
1.90000000 0.03782010
2.00000000 0.04047430
2.10000000 0.04377050
2.20000000 0.04768090
2.30000000 0.05129230
2.40000000 0.05552120
2.50000000 0.05983170
2.60000000 0.06605730
2.70000000 0.07049590
2.80000000 0.07371030
2.90000000 0.07737590
3.00000000 0.08230120
3.10000000 0.08960560
3.20000000 0.09730030
3.30000000 0.10392000
3.40000000 0.10810100
3.50000000 0.11580500
3.60000000 0.12286100
3.70000000 0.13141600
3.80000000 0.14150700
3.90000000 0.15137000
4.00000000 0.15989000
4.10000000 0.16944400
4.20000000 0.18388600
4.30000000 0.19523400
4.40000000 0.21155400
4.50000000 0.22884600
4.60000000 0.24654600
4.70000000 0.26989300
4.80000000 0.28617100
4.90000000 0.30631600
5.00000000 0.32481700
5.10000000 0.34537200
5.20000000 0.37104000
5.30000000 0.38827800
5.40000000 0.41578400
5.50000000 0.43165500
5.60000000 0.45023000
5.70000000 0.47769800
5.80000000 0.50264600
5.90000000 0.51881000
6.00000000 0.54263900
6.10000000 0.55845500
6.20000000 0.57106400
6.30000000 0.59276800
6.40000000 0.61213700
6.50000000 0.63054300
6.60000000 0.65347000
6.70000000 0.67036300
6.80000000 0.68475100
6.90000000 0.70805500
7.00000000 0.72692000
7.10000000 0.74221000
7.20000000 0.75590200
7.30000000 0.76952000
7.40000000 0.77902400
7.50000000 0.79228300
7.60000000 0.80925200
7.70000000 0.82008700
7.80000000 0.83369800
7.90000000 0.85079200
8.00000000 0.86752500
8.10000000 0.87878900
8.20000000 0.89753700
8.30000000 0.91116700
8.40000000 0.92192000
8.50000000 0.93470000
8.60000000 0.94880400
8.70000000 0.95958200
8.80000000 0.97173900
8.90000000 0.98463900
9.00000000 1.00170000
9.10000000 1.00822000
9.20000000 1.02055000
9.30000000 1.02899000
9.40000000 1.04633000
9.50000000 1.05830000
9.60000000 1.06389000
9.70000000 1.07526000
9.80000000 1.08356000
9.90000000 1.09636000
10.00000000 1.10181000
10.10000000 1.12451000
10.20000000 1.13198000
10.30000000 1.14119000
10.40000000 1.15109000
10.50000000 1.16587000
10.60000000 1.17116000
10.70000000 1.18091000
10.80000000 1.18500000
10.90000000 1.19803000
11.00000000 1.20672000
11.10000000 1.21550000
11.20000000 1.22767000
11.30000000 1.24095000
11.40000000 1.25008000
11.50000000 1.25973000
11.60000000 1.27024000
11.70000000 1.27434000
11.80000000 1.28334000
11.90000000 1.28976000
12.00000000 1.29607000
12.10000000 1.30476000
12.20000000 1.30560000
12.30000000 1.31279000
12.40000000 1.32093000
12.50000000 1.32811000
12.60000000 1.34037000
12.70000000 1.35511000
12.80000000 1.36696000
12.90000000 1.37489000
13.00000000 1.38020000
13.10000000 1.38608000
13.20000000 1.40741000
13.30000000 1.41695000
13.40000000 1.42220000
13.50000000 1.42767000
13.60000000 1.43005000
13.70000000 1.43911000
13.80000000 1.45321000
13.90000000 1.46429000
14.00000000 1.48017000
14.10000000 1.49571000
14.20000000 1.50772000
14.30000000 1.52050000
14.40000000 1.53885000
14.50000000 1.54696000
14.60000000 1.55161000
14.70000000 1.56129000
14.80000000 1.56509000
14.90000000 1.58057000
15.00000000 1.58776000
15.10000000 1.59202000
15.20000000 1.60328000
15.30000000 1.62079000
15.40000000 1.62443000
15.50000000 1.63240000
15.60000000 1.63979000
15.70000000 1.63979000
15.80000000 1.64483000
15.90000000 1.65442000
16.00000000 1.66068000
16.10000000 1.66918000
16.20000000 1.67122000
16.30000000 1.67781000
16.40000000 1.69126000
16.50000000 1.69824000
16.60000000 1.70400000
16.70000000 1.70554000
16.80000000 1.72117000
16.90000000 1.73645000
17.00000000 1.74346000
17.10000000 1.74854000
17.20000000 1.75285000
17.30000000 1.75837000
17.40000000 1.76313000
17.50000000 1.76498000
17.60000000 1.76956000
17.70000000 1.77241000
17.80000000 1.78186000
17.90000000 1.78663000
18.00000000 1.78946000
18.10000000 1.79407000
18.20000000 1.80122000
18.30000000 1.80586000
18.40000000 1.81307000
18.50000000 1.82582000
18.60000000 1.83401000
18.70000000 1.84964000
18.80000000 1.85602000
18.90000000 1.85694000
19.00000000 1.87532000
19.10000000 1.87758000
19.20000000 1.88367000
19.30000000 1.88740000
19.40000000 1.88740000
19.50000000 1.89387000
19.60000000 1.89667000
19.70000000 1.91881000
19.80000000 1.93618000
19.90000000 1.94217000
20.00000000 1.94726000
20.10000000 1.94863000
20.20000000 1.95006000
20.30000000 1.95715000
20.40000000 1.96125000
20.50000000 1.96823000
20.60000000 1.97187000
20.70000000 1.97187000
20.80000000 1.97187000
20.90000000 1.97381000
21.00000000 1.97599000
21.10000000 1.98639000
21.20000000 1.99755000
21.30000000 1.99981000
21.40000000 2.00566000
21.50000000 2.00566000
21.60000000 2.01213000
21.70000000 2.01716000
21.80000000 2.01756000
21.90000000 2.01772000
22.00000000 2.02639000
22.10000000 2.03108000
22.20000000 2.03537000
22.30000000 2.04159000
22.40000000 2.04809000
22.50000000 2.05380000
22.60000000 2.06303000
22.70000000 2.06720000
22.80000000 2.07618000
22.90000000 2.08015000
23.00000000 2.08290000
23.10000000 2.09786000
23.20000000 2.10416000
23.30000000 2.10823000
23.40000000 2.11495000
23.50000000 2.11976000
23.60000000 2.12413000
23.70000000 2.12869000
23.80000000 2.13329000
23.90000000 2.13654000
24.00000000 2.13654000
24.10000000 2.14657000
24.20000000 2.15128000
24.30000000 2.15128000
24.40000000 2.15407000
24.50000000 2.16241000
24.60000000 2.16241000
24.70000000 2.16451000
24.80000000 2.17067000
24.90000000 2.17495000
25.00000000 2.17573000
25.10000000 2.18224000
25.20000000 2.18473000
25.30000000 2.18473000
25.40000000 2.18829000
25.50000000 2.19074000
25.60000000 2.19074000
25.70000000 2.19522000
25.80000000 2.19522000
25.90000000 2.19757000
26.00000000 2.20491000
26.10000000 2.20753000
26.20000000 2.20999000
26.30000000 2.21037000
26.40000000 2.21550000
26.50000000 2.21948000
26.60000000 2.22103000
26.70000000 2.22217000
26.80000000 2.23195000
26.90000000 2.23686000
27.00000000 2.24432000
27.10000000 2.24870000
27.20000000 2.24870000
27.30000000 2.24926000
27.40000000 2.25226000
27.50000000 2.25226000
27.60000000 2.25858000
27.70000000 2.25858000
27.80000000 2.26614000
27.90000000 2.26614000
28.00000000 2.27145000
28.10000000 2.28405000
28.20000000 2.28680000
28.30000000 2.29114000
28.40000000 2.29404000
28.50000000 2.29404000
28.60000000 2.30043000
28.70000000 2.30043000
28.80000000 2.30043000
28.90000000 2.30319000
29.00000000 2.31142000
29.10000000 2.31519000
29.20000000 2.31653000
29.30000000 2.32274000
29.40000000 2.32564000
29.50000000 2.32564000
29.60000000 2.32758000
29.70000000 2.33474000
29.80000000 2.33636000
29.90000000 2.33636000
30.00000000 2.34375000
30.10000000 2.34375000
30.20000000 2.34685000
30.30000000 2.34685000
30.40000000 2.34817000
30.50000000 2.35283000
30.60000000 2.35412000
30.70000000 2.35717000
30.80000000 2.35717000
30.90000000 2.36025000
31.00000000 2.36025000
31.10000000 2.36025000
31.20000000 2.36316000
31.30000000 2.36554000
31.40000000 2.36650000
31.50000000 2.36650000
31.60000000 2.36650000
31.70000000 2.36650000
31.80000000 2.36868000
31.90000000 2.37426000
32.00000000 2.38058000
32.10000000 2.38058000
32.20000000 2.38205000
32.30000000 2.38862000
32.40000000 2.39134000
32.50000000 2.39134000
32.60000000 2.39134000
32.70000000 2.39654000
32.80000000 2.40114000
32.90000000 2.40368000
33.00000000 2.40811000
33.10000000 2.41288000
33.20000000 2.41288000
33.30000000 2.41288000
33.40000000 2.41376000
33.50000000 2.42082000
33.60000000 2.42138000
33.70000000 2.42660000
33.80000000 2.42660000
33.90000000 2.42762000
34.00000000 2.43174000
34.10000000 2.43446000
34.20000000 2.43621000
34.30000000 2.43942000
34.40000000 2.44361000
34.50000000 2.44713000
34.60000000 2.44888000
34.70000000 2.46050000
34.80000000 2.46301000
34.90000000 2.46616000
35.00000000 2.46616000
35.10000000 2.46616000
35.20000000 2.46786000
35.30000000 2.47057000
35.40000000 2.47057000
35.50000000 2.47057000
35.60000000 2.47057000
35.70000000 2.47057000
35.80000000 2.47247000
35.90000000 2.47247000
36.00000000 2.47834000
36.10000000 2.48040000
36.20000000 2.48127000
36.30000000 2.48295000
36.40000000 2.48384000
36.50000000 2.48805000
36.60000000 2.49462000
36.70000000 2.49462000
36.80000000 2.49462000
36.90000000 2.49520000
37.00000000 2.50283000
37.10000000 2.50504000
37.20000000 2.50504000
37.30000000 2.51585000
37.40000000 2.52094000
37.50000000 2.52310000
37.60000000 2.52310000
37.70000000 2.52552000
37.80000000 2.52552000
37.90000000 2.52631000
38.00000000 2.52764000
38.10000000 2.52924000
38.20000000 2.52924000
38.30000000 2.53127000
38.40000000 2.53127000
38.50000000 2.53127000
38.60000000 2.53189000
38.70000000 2.53329000
38.80000000 2.53329000
38.90000000 2.53329000
39.00000000 2.53329000
39.10000000 2.53528000
39.20000000 2.53528000
39.30000000 2.53528000
39.40000000 2.53528000
39.50000000 2.53865000
39.60000000 2.53865000
39.70000000 2.53865000
39.80000000 2.53865000
39.90000000 2.54064000
40.00000000 2.54064000
40.10000000 2.54064000
40.20000000 2.54064000
40.30000000 2.54139000
40.40000000 2.54139000
40.50000000 2.54270000
40.60000000 2.54270000
40.70000000 2.54380000
40.80000000 2.55124000
40.90000000 2.55278000
41.00000000 2.55687000
41.10000000 2.55687000
41.20000000 2.56195000
41.30000000 2.56195000
41.40000000 2.56566000
41.50000000 2.56761000
41.60000000 2.56761000
41.70000000 2.56761000
41.80000000 2.57136000
41.90000000 2.57136000
42.00000000 2.57314000
42.10000000 2.57641000
42.20000000 2.57726000
42.30000000 2.57952000
42.40000000 2.57952000
42.50000000 2.58506000
42.60000000 2.58506000
42.70000000 2.58847000
42.80000000 2.58847000
42.90000000 2.59005000
43.00000000 2.59188000
43.10000000 2.59462000
43.20000000 2.59462000
43.30000000 2.59462000
43.40000000 2.59775000
43.50000000 2.59775000
43.60000000 2.59775000
43.70000000 2.59775000
43.80000000 2.59775000
43.90000000 2.59775000
44.00000000 2.60090000
44.10000000 2.60090000
44.20000000 2.60090000
44.30000000 2.60090000
44.40000000 2.60090000
44.50000000 2.60090000
44.60000000 2.60090000
44.70000000 2.60090000
44.80000000 2.60090000
44.90000000 2.60090000
45.00000000 2.60090000
45.10000000 2.60090000
45.20000000 2.60090000
45.30000000 2.60251000
45.40000000 2.60433000
45.50000000 2.60433000
45.60000000 2.60433000
45.70000000 2.60433000
45.80000000 2.60433000
45.90000000 2.60433000
46.00000000 2.60433000
46.10000000 2.60433000
46.20000000 2.60433000
46.30000000 2.60433000
46.40000000 2.60433000
46.50000000 2.60433000
46.60000000 2.60433000
46.70000000 2.60681000
46.80000000 2.60893000
46.90000000 2.60893000
47.00000000 2.60893000
47.10000000 2.61056000
47.20000000 2.61056000
47.30000000 2.61056000
47.40000000 2.61256000
47.50000000 2.61256000
47.60000000 2.61256000
47.70000000 2.61256000
47.80000000 2.61256000
47.90000000 2.61256000
48.00000000 2.61256000
48.10000000 2.61256000
48.20000000 2.61256000
48.30000000 2.61256000
48.40000000 2.61256000
48.50000000 2.61445000
48.60000000 2.61619000
48.70000000 2.61970000
48.80000000 2.61970000
48.90000000 2.61970000
49.00000000 2.61970000
49.10000000 2.61970000
49.20000000 2.61970000
49.30000000 2.61970000
49.40000000 2.61970000
49.50000000 2.61970000
49.60000000 2.61970000
49.70000000 2.61970000
49.80000000 2.61970000
49.90000000 2.61970000
50.00000000 2.61970000
50.10000000 2.61970000
50.20000000 2.62179000
50.30000000 2.62179000
50.40000000 2.62179000
50.50000000 2.62301000
50.60000000 2.62301000
50.70000000 2.62301000
50.80000000 2.62400000
50.90000000 2.62832000
51.00000000 2.62832000
51.10000000 2.62832000
51.20000000 2.63013000
51.30000000 2.63295000
51.40000000 2.63295000
51.50000000 2.63551000
51.60000000 2.63551000
51.70000000 2.63551000
51.80000000 2.63551000
51.90000000 2.63551000
52.00000000 2.63551000
52.10000000 2.63551000
52.20000000 2.63551000
52.30000000 2.63551000
52.40000000 2.63551000
52.50000000 2.63551000
52.60000000 2.63668000
52.70000000 2.63945000
52.80000000 2.63945000
52.90000000 2.63945000
53.00000000 2.63945000
53.10000000 2.63945000
53.20000000 2.64125000
53.30000000 2.64125000
53.40000000 2.64125000
53.50000000 2.64125000
53.60000000 2.64125000
53.70000000 2.64125000
53.80000000 2.64125000
53.90000000 2.64125000
54.00000000 2.64125000
54.10000000 2.64125000
54.20000000 2.64125000
54.30000000 2.64125000
54.40000000 2.64125000
54.50000000 2.64125000
54.60000000 2.64125000
54.70000000 2.64125000
54.80000000 2.64125000
54.90000000 2.64125000
55.00000000 2.64125000
55.10000000 2.64125000
55.20000000 2.64125000
55.30000000 2.64125000
55.40000000 2.64125000
55.50000000 2.64125000
55.60000000 2.64125000
55.70000000 2.64125000
55.80000000 2.64125000
55.90000000 2.64125000
56.00000000 2.64125000
56.10000000 2.64125000
56.20000000 2.64125000
56.30000000 2.64125000
56.40000000 2.64125000
56.50000000 2.64125000
56.60000000 2.64125000
56.70000000 2.64125000
56.80000000 2.64125000
56.90000000 2.64436000
57.00000000 2.64436000
57.10000000 2.64436000
57.20000000 2.64436000
57.30000000 2.64436000
57.40000000 2.64436000
57.50000000 2.64436000
57.60000000 2.64436000
57.70000000 2.64436000
57.80000000 2.64436000
57.90000000 2.64436000
58.00000000 2.64436000
58.10000000 2.64436000
58.20000000 2.64436000
58.30000000 2.64436000
58.40000000 2.64436000
58.50000000 2.64436000
58.60000000 2.64436000
58.70000000 2.64436000
58.80000000 2.64436000
58.90000000 2.64436000
59.00000000 2.64436000
59.10000000 2.64436000
59.20000000 2.64436000
59.30000000 2.64436000
59.40000000 2.64436000
59.50000000 2.64436000
59.60000000 2.64436000
59.70000000 2.64634000
59.80000000 2.64634000
59.90000000 2.64634000
60.00000000 2.64634000
60.10000000 2.64634000
60.20000000 2.64634000
60.30000000 2.64634000
60.40000000 2.64634000
60.50000000 2.64634000
60.60000000 2.64634000
60.70000000 2.64634000
60.80000000 2.64634000
60.90000000 2.64634000
61.00000000 2.64803000
61.10000000 2.64803000
61.20000000 2.64803000
61.30000000 2.64803000
61.40000000 2.64803000
61.50000000 2.64803000
61.60000000 2.64803000
61.70000000 2.64803000
61.80000000 2.64803000
61.90000000 2.64803000
62.00000000 2.64803000
62.10000000 2.64803000
62.20000000 2.64803000
62.30000000 2.64803000
62.40000000 2.64803000
62.50000000 2.64803000
62.60000000 2.64803000
62.70000000 2.64803000
62.80000000 2.64803000
62.90000000 2.64803000
63.00000000 2.64803000
63.10000000 2.64803000
63.20000000 2.64803000
63.30000000 2.64803000
63.40000000 2.64803000
63.50000000 2.64803000
63.60000000 2.64803000
63.70000000 2.64803000
63.80000000 2.64803000
63.90000000 2.64803000
64.00000000 2.64803000
64.10000000 2.64803000
64.20000000 2.64803000
64.30000000 2.64803000
64.40000000 2.64803000
64.50000000 2.64803000
64.60000000 2.64803000
64.70000000 2.64803000
64.80000000 2.64803000
64.90000000 2.64803000
65.00000000 2.64803000
65.10000000 2.64803000
65.20000000 2.64803000
65.30000000 2.64803000
65.40000000 2.64803000
65.50000000 2.64803000
65.60000000 2.64803000
65.70000000 2.64803000
65.80000000 2.65193000
65.90000000 2.65193000
66.00000000 2.65193000
66.10000000 2.65376000
66.20000000 2.65376000
66.30000000 2.65376000
66.40000000 2.65376000
66.50000000 2.65376000
66.60000000 2.65376000
66.70000000 2.65376000
66.80000000 2.65376000
66.90000000 2.65376000
67.00000000 2.65376000
67.10000000 2.65376000
67.20000000 2.65376000
67.30000000 2.65376000
67.40000000 2.65376000
67.50000000 2.65376000
67.60000000 2.65376000
67.70000000 2.65376000
67.80000000 2.65376000
67.90000000 2.65745000
68.00000000 2.65745000
68.10000000 2.65745000
68.20000000 2.66104000
68.30000000 2.66104000
68.40000000 2.66104000
68.50000000 2.66104000
68.60000000 2.66104000
68.70000000 2.66104000
68.80000000 2.66104000
68.90000000 2.66104000
69.00000000 2.66104000
69.10000000 2.66104000
69.20000000 2.66104000
69.30000000 2.66104000
69.40000000 2.66104000
69.50000000 2.66104000
69.60000000 2.66104000
69.70000000 2.66104000
69.80000000 2.66357000
69.90000000 2.66357000
70.00000000 2.66357000
70.10000000 2.66357000
70.20000000 2.66357000
70.30000000 2.66538000
70.40000000 2.66538000
70.50000000 2.66538000
70.60000000 2.66538000
70.70000000 2.66538000
70.80000000 2.66538000
70.90000000 2.66538000
71.00000000 2.66538000
71.10000000 2.66538000
71.20000000 2.66538000
71.30000000 2.66538000
71.40000000 2.66538000
71.50000000 2.66538000
71.60000000 2.66538000
71.70000000 2.66538000
71.80000000 2.66538000
71.90000000 2.66538000
72.00000000 2.66538000
72.10000000 2.66538000
72.20000000 2.66538000
72.30000000 2.66538000
72.40000000 2.66538000
72.50000000 2.66538000
72.60000000 2.66538000
72.70000000 2.66538000
72.80000000 2.66538000
72.90000000 2.66538000
73.00000000 2.66538000
73.10000000 2.66538000
73.20000000 2.66538000
73.30000000 2.66538000
73.40000000 2.66538000
73.50000000 2.66538000
73.60000000 2.66538000
73.70000000 2.66538000
73.80000000 2.66538000
73.90000000 2.66538000
74.00000000 2.66538000
74.10000000 2.66538000
74.20000000 2.66538000
74.30000000 2.66538000
74.40000000 2.66538000
74.50000000 2.66538000
74.60000000 2.66538000
74.70000000 2.66538000
74.80000000 2.66538000
74.90000000 2.66538000
75.00000000 2.66538000
75.10000000 2.66538000
75.20000000 2.66538000
75.30000000 2.66538000
75.40000000 2.66538000
75.50000000 2.66538000
75.60000000 2.66538000
75.70000000 2.66538000
75.80000000 2.66538000
75.90000000 2.66538000
76.00000000 2.66538000
76.10000000 2.66959000
76.20000000 2.66959000
76.30000000 2.66959000
76.40000000 2.66959000
76.50000000 2.66959000
76.60000000 2.66959000
76.70000000 2.66959000
76.80000000 2.66959000
76.90000000 2.66959000
77.00000000 2.66959000
77.10000000 2.66959000
77.20000000 2.66959000
77.30000000 2.66959000
77.40000000 2.66959000
77.50000000 2.66959000
77.60000000 2.66959000
77.70000000 2.66959000
77.80000000 2.66959000
77.90000000 2.66959000
78.00000000 2.66959000
78.10000000 2.66959000
78.20000000 2.66959000
78.30000000 2.66959000
78.40000000 2.66959000
78.50000000 2.66959000
78.60000000 2.66959000
78.70000000 2.66959000
78.80000000 2.66959000
78.90000000 2.66959000
79.00000000 2.66959000
79.10000000 2.66959000
79.20000000 2.66959000
79.30000000 2.66959000
79.40000000 2.66959000
79.50000000 2.66959000
79.60000000 2.66959000
79.70000000 2.66959000
79.80000000 2.66959000
79.90000000 2.67180000
80.00000000 2.67180000
80.10000000 2.67180000
80.20000000 2.67180000
80.30000000 2.67180000
80.40000000 2.67180000
80.50000000 2.67180000
80.60000000 2.67180000
80.70000000 2.67180000
80.80000000 2.67180000
80.90000000 2.67180000
81.00000000 2.67180000
81.10000000 2.67180000
81.20000000 2.67180000
81.30000000 2.67180000
81.40000000 2.67180000
81.50000000 2.67180000
81.60000000 2.67180000
81.70000000 2.67180000
81.80000000 2.67180000
81.90000000 2.67180000
82.00000000 2.67180000
82.10000000 2.67180000
82.20000000 2.67180000
82.30000000 2.67180000
82.40000000 2.67180000
82.50000000 2.67180000
82.60000000 2.67180000
82.70000000 2.67180000
82.80000000 2.67180000
82.90000000 2.67180000
83.00000000 2.67180000
83.10000000 2.67180000
83.20000000 2.67180000
83.30000000 2.67180000
83.40000000 2.67180000
83.50000000 2.67180000
83.60000000 2.67180000
83.70000000 2.67180000
83.80000000 2.67180000
83.90000000 2.67180000
84.00000000 2.67180000
84.10000000 2.67180000
84.20000000 2.67180000
84.30000000 2.67180000
84.40000000 2.67180000
84.50000000 2.67180000
84.60000000 2.67180000
84.70000000 2.67180000
84.80000000 2.67180000
84.90000000 2.67180000
85.00000000 2.67180000
85.10000000 2.67180000
85.20000000 2.67180000
85.30000000 2.67180000
85.40000000 2.67180000
85.50000000 2.67180000
85.60000000 2.67180000
85.70000000 2.67180000
85.80000000 2.67180000
85.90000000 2.67180000
86.00000000 2.67180000
86.10000000 2.67180000
86.20000000 2.67180000
86.30000000 2.67180000
86.40000000 2.67180000
86.50000000 2.67180000
86.60000000 2.67180000
86.70000000 2.67180000
86.80000000 2.67180000
86.90000000 2.67180000
87.00000000 2.67180000
87.10000000 2.67180000
87.20000000 2.67180000
